2theta (deg),Intensity (counts)
10.0,204.9671
10.02,198.6174
10.04,206.4769
10.06,215.2303
10.08,197.6585
10.1,197.6586
10.12,215.7921
10.14,207.6743
10.16,195.3053
10.18,205.4256
10.2,195.3658
10.22,195.3427
10.24,202.4196
10.26,180.8672
10.28,182.7508
10.3,194.3771
10.32,189.8717
10.34,203.1425
10.36,190.9198
10.38,185.877
10.4,214.6565
10.42,197.7422
10.44,200.6753
10.46,185.7525
10.48,194.5562
10.5,201.1092
10.52,188.4901
10.54,203.757
10.56,193.9936
10.58,197.0831
10.6,193.9829
10.62,218.5228
10.64,199.865
10.66,189.4229
10.68,208.2254
10.7,187.7916
10.72,202.0886
10.74,180.4033
10.76,186.7181
10.78,201.9686
10.8,207.3847
10.82,201.7137
10.84,198.8435
10.86,196.989
10.88,185.2148
10.9,192.8016
10.92,195.3936
10.94,210.5712
10.96,203.4362
10.98,182.3696
11.0,203.2408
11.02,196.1492
11.04,193.2308
11.06,206.1168
11.08,210.31
11.1,209.3128
11.12,191.6078
11.14,196.9079
11.16,203.3126
11.18,209.7555
11.2,195.2083
11.22,198.1434
11.24,188.9367
11.26,188.0379
11.28,208.1253
11.3,213.5624
11.32,199.2799
11.34,210.0353
11.36,203.6164
11.38,193.5488
11.4,203.614
11.42,215.3804
11.44,199.6417
11.46,215.6464
11.48,173.8025
11.5,208.219
11.52,200.8705
11.54,197.0099
11.56,200.9176
11.58,180.1243
11.6,197.8033
11.62,203.5711
11.64,214.7789
11.66,194.8173
11.68,191.9151
11.7,194.9824
11.72,209.154
11.74,203.2875
11.76,194.7024
11.78,205.1327
11.8,200.9708
11.82,209.6864
11.84,192.9795
11.86,196.7234
11.88,196.0789
11.9,185.3649
11.92,202.9612
11.94,202.6106
11.96,200.0511
11.98,197.6541
12.0,185.8463
12.02,195.7935
12.04,196.5729
12.06,191.9772
12.08,198.3871
12.1,204.0405
12.12,218.8619
12.14,201.7458
12.16,202.5755
12.18,199.2555
12.2,180.8123
12.22,199.7349
12.24,200.6023
12.26,224.6324
12.28,198.0764
12.3,203.0155
12.32,199.6529
12.34,188.3132
12.36,211.4282
12.38,207.5193
12.4,207.9103
12.42,190.9061
12.44,214.0279
12.46,185.9815
12.48,205.8686
12.5,221.9046
12.52,190.0946
12.54,194.337
12.56,200.9965
12.58,194.9652
12.6,184.4934
12.62,200.6856
12.64,189.377
12.66,204.7359
12.68,190.8058
12.7,215.4993
12.72,192.1675
12.74,196.7794
12.76,208.1352
12.78,187.6914
12.8,202.2746
12.82,213.0714
12.84,183.9252
12.86,201.8463
12.88,202.5988
12.9,207.8182
12.92,187.6305
12.94,186.7954
12.96,205.2194
12.98,202.9698
13.0,202.5049
13.02,203.4645
13.04,193.1998
13.06,202.3225
13.08,202.9307
13.1,192.8565
13.12,218.6577
13.14,204.7383
13.16,188.087
13.18,206.5655
13.2,190.2532
13.22,207.8708
13.24,211.586
13.26,191.7932
13.28,209.6338
13.3,204.1278
13.32,208.2206
13.34,218.9679
13.36,197.5461
13.38,192.4626
13.4,191.1049
13.42,191.8419
13.44,199.229
13.46,203.4115
13.48,202.7669
13.5,208.2718
13.52,200.13
13.54,214.5353
13.56,197.3534
13.58,227.2017
13.6,206.2567
13.62,191.4284
13.64,189.2911
13.66,204.8247
13.68,197.7654
13.7,207.14
13.72,204.7324
13.74,199.2717
13.76,191.5321
13.78,184.8515
13.8,195.5349
13.82,208.564
13.84,202.1409
13.86,187.5426
13.88,201.7318
13.9,203.8532
13.92,191.1614
13.94,201.5373
13.96,200.5821
13.98,188.5703
14.0,203.5779
14.02,205.6078
14.04,210.8305
14.06,210.538
14.08,186.2233
14.1,190.6217
14.12,205.1504
14.14,205.1379
14.16,205.1505
14.18,238.5273
14.2,205.7089
14.22,211.3557
14.24,209.54
14.26,206.5139
14.28,196.8473
14.3,207.5897
14.32,192.2717
14.34,197.6318
14.36,195.1464
14.38,200.8187
14.4,223.1466
14.42,181.3273
14.44,206.8626
14.46,183.8728
14.48,195.2807
14.5,210.8895
14.52,200.6428
14.54,189.2226
14.56,192.847
14.58,206.796
14.6,192.6963
14.62,202.1646
14.64,200.4557
14.66,193.484
14.68,221.4394
14.7,206.3392
14.72,179.7486
14.74,201.8645
14.76,193.3821
14.78,208.5243
14.8,192.0748
14.82,198.8526
14.84,205.0499
14.86,208.6576
14.88,187.997
14.9,196.655
14.92,195.2505
14.94,193.4667
14.96,217.6545
14.98,204.0498
15.0,187.3912
15.02,209.1786
15.04,221.2216
15.06,210.3247
15.08,184.8063
15.1,195.1577
15.12,212.6691
15.14,192.9233
15.16,204.4382
15.18,207.7463
15.2,190.7307
15.22,199.4047
15.24,167.5873
15.26,189.7561
15.28,197.4743
15.3,187.5222
15.32,216.3241
15.34,185.6986
15.36,195.5996
15.38,201.3074
15.4,214.4127
15.42,185.6414
15.44,211.6316
15.46,200.1023
15.48,190.1849
15.5,204.621
15.52,201.9906
15.54,193.9978
15.56,200.698
15.58,196.1469
15.6,201.1352
15.62,206.6213
15.64,215.8602
15.66,187.6218
15.68,221.3303
15.7,180.4791
15.72,198.4821
15.74,205.8832
15.76,202.8099
15.78,193.773
15.8,197.9188
15.82,195.07
15.84,194.1064
15.86,208.496
15.88,203.5702
15.9,193.0709
15.92,208.996
15.94,203.073
15.96,208.1286
15.98,206.2963
16.0,191.71
16.02,194.3982
16.04,207.4729
16.06,206.1037
16.08,199.791
16.1,201.1733
16.12,212.7766
16.14,194.0843
16.16,205.471
16.18,197.9781
16.2,197.8232
16.22,210.9878
16.24,208.2542
16.26,208.1351
16.28,213.0548
16.3,200.21
16.32,206.8195
16.34,196.8973
16.36,203.2417
16.38,198.6986
16.4,200.97
16.42,205.9516
16.44,191.8178
16.46,220.9239
16.48,189.9398
16.5,187.8581
16.52,211.5811
16.54,207.9166
16.56,206.2412
16.58,206.2835
16.6,199.8775
16.62,191.0275
16.64,200.758
16.66,193.2284
16.68,209.7512
16.7,198.5294
16.72,191.745
16.74,196.7861
16.76,204.1293
16.78,194.3628
16.8,191.7778
16.82,202.4369
16.84,202.4497
16.86,194.9306
16.88,195.2896
16.9,202.3205
16.92,185.5192
16.94,185.9254
16.96,192.8156
16.98,197.8655
17.0,203.1091
17.02,214.7536
17.04,208.5766
17.06,198.4006
17.08,199.8098
17.1,189.9747
17.12,199.8149
17.14,197.1134
17.16,203.2272
17.18,191.7277
17.2,205.1935
17.22,215.3274
17.24,198.9124
17.26,204.0171
17.28,206.9014
17.3,195.9878
17.32,202.2409
17.34,200.1259
17.36,200.9768
17.38,192.2699
17.4,200.2451
17.42,204.98
17.44,214.5114
17.46,209.5927
17.48,221.5318
17.5,192.3265
17.52,208.7232
17.54,201.8334
17.56,221.898
17.58,191.917
17.6,191.6028
17.62,194.0061
17.64,178.761
17.66,194.7424
17.68,192.4087
17.7,201.5039
17.72,203.4176
17.74,218.7617
17.76,209.5042
17.78,194.231
17.8,191.0159
17.82,204.9192
17.84,186.7977
17.86,218.3146
17.88,211.7944
17.9,195.3082
17.92,182.8687
17.94,213.5387
17.96,198.8546
17.98,212.3782
18.0,184.0557
18.02,194.0062
18.04,200.0524
18.06,200.4698
18.08,195.4993
18.1,206.2285
18.12,189.3238
18.14,198.5762
18.16,201.203
18.18,205.1444
18.2,207.1161
18.22,188.7536
18.24,184.6589
18.26,212.7768
18.28,203.3231
18.3,192.5151
18.32,215.5115
18.34,201.1567
18.36,211.793
18.38,200.6752
18.4,220.6075
18.42,217.5534
18.44,197.5104
18.46,209.7157
18.48,206.4538
18.5,213.6863
18.52,190.3508
18.54,206.8605
18.56,210.5842
18.58,182.4126
18.6,188.1674
18.62,179.6077
18.64,197.3059
18.66,207.1754
18.68,215.0236
18.7,200.7409
18.72,216.2862
18.74,186.199
18.76,182.9662
18.78,199.4445
18.8,203.8407
18.82,199.6731
18.84,179.3256
18.86,199.1088
18.88,186.9553
18.9,206.6967
18.92,203.666
18.94,190.6012
18.96,194.8613
18.98,189.4079
19.0,199.3732
19.02,209.5514
19.04,190.1427
19.06,205.0405
19.08,194.6974
19.1,192.0713
19.12,198.9297
19.14,189.6476
19.16,194.4635
19.18,188.0212
19.2,219.6473
19.22,200.3526
19.24,193.0027
19.26,202.1398
19.28,198.8767
19.3,197.7903
19.32,206.1417
19.34,207.5751
19.36,194.695
19.38,194.2418
19.4,197.2495
19.42,176.9808
19.44,184.8481
19.46,213.6687
19.48,216.4497
19.5,197.5096
19.52,205.7656
19.54,203.1125
19.56,230.7888
19.58,211.1957
19.6,198.7208
19.62,190.4446
19.64,183.9355
19.66,202.0346
19.68,192.4365
19.7,185.7775
19.72,193.5343
19.74,189.1845
19.76,216.8714
19.78,208.8164
19.8,199.9203
19.82,214.7994
19.84,200.7737
19.86,191.3872
19.88,215.2319
19.9,205.3943
19.92,189.6631
19.94,198.3035
19.96,192.2683
19.98,190.4962
20.0,224.8144
20.02,266.7606
20.04,310.5046
20.06,482.6879
20.08,718.9291
20.1,1044.2717
20.12,1363.4544
20.14,1563.6382
20.16,1572.7634
20.18,1361.0688
20.2,1051.8475
20.22,724.9332
20.24,474.6687
20.26,315.4146
20.28,241.8987
20.3,223.1065
20.32,209.3334
20.34,191.249
20.36,201.2002
20.38,207.5495
20.4,183.3112
20.42,205.4343
20.44,193.3738
20.46,205.706
20.48,192.3674
20.5,181.9512
20.52,183.7246
20.54,200.4808
20.56,202.5972
20.58,190.9568
20.6,206.3859
20.62,183.3848
20.64,199.3392
20.66,187.8898
20.68,193.4816
20.7,200.474
20.72,191.3959
20.74,196.1544
20.76,210.0629
20.78,194.2311
20.8,208.3569
20.82,188.7029
20.84,205.298
20.86,214.4157
20.88,175.2836
20.9,192.031
20.92,205.7707
20.94,197.9695
20.96,203.7115
20.98,193.9601
21.0,200.8659
21.02,198.4432
21.04,211.6779
21.06,202.5443
21.08,203.3765
21.1,195.8831
21.12,195.1302
21.14,195.6945
21.16,204.0043
21.18,195.9579
21.2,203.3397
21.22,221.8478
21.24,211.2543
21.26,202.2943
21.28,223.4092
21.3,217.8877
21.32,219.3985
21.34,257.5868
21.36,289.4247
21.38,358.8111
21.4,429.1009
21.42,520.0297
21.44,580.6891
21.46,639.0574
21.48,692.9107
21.5,677.8886
21.52,686.9728
21.54,648.9571
21.56,562.6339
21.58,514.7029
21.6,432.3016
21.62,358.1734
21.64,314.4604
21.66,290.3746
21.68,241.5984
21.7,224.4507
21.72,206.8035
21.74,197.0561
21.76,210.8464
21.78,192.5329
21.8,201.1576
21.82,195.3912
21.84,204.8496
21.86,203.3567
21.88,210.3817
21.9,194.9017
21.92,197.3018
21.94,190.2125
21.96,195.5571
21.98,203.773
22.0,207.5699
22.02,190.7783
22.04,208.6961
22.06,213.5564
22.08,204.1343
22.1,218.768
22.12,192.2621
22.14,187.5535
22.16,182.2128
22.18,214.9604
22.2,206.5437
22.22,199.4442
22.24,202.7997
22.26,188.7451
22.28,224.4575
22.3,201.2922
22.32,201.0939
22.34,207.2577
22.36,204.8101
22.38,202.2388
22.4,192.0953
22.42,204.7147
22.44,218.8202
22.46,213.4542
22.48,215.9319
22.5,194.8878
22.52,190.104
22.54,198.7421
22.56,200.5572
22.58,210.9419
22.6,183.0754
22.62,215.2955
22.64,198.4199
22.66,195.7312
22.68,189.879
22.7,183.4514
22.72,208.2317
22.74,200.7332
22.76,187.1004
22.78,187.0492
22.8,196.6422
22.82,216.6902
22.84,197.4041
22.86,184.9686
22.88,197.5426
22.9,197.2728
22.92,173.0311
22.94,199.4571
22.96,197.6907
22.98,206.9621
23.0,218.4896
23.02,211.2657
23.04,197.3111
23.06,188.9347
23.08,225.7336
23.1,200.5922
23.12,200.1393
23.14,199.7587
23.16,201.9808
23.18,198.5564
23.2,194.2634
23.22,194.5314
23.24,199.6725
23.26,194.5658
23.28,192.8715
23.3,201.0643
23.32,197.4502
23.34,215.0399
23.36,173.4903
23.38,210.9151
23.4,212.4609
23.42,179.2661
23.44,196.5731
23.46,196.2856
23.48,185.9249
23.5,192.2218
23.52,188.8942
23.54,217.5227
23.56,209.3568
23.58,212.7156
23.6,207.2167
23.62,188.7095
23.64,194.7548
23.66,204.8937
23.68,187.7787
23.7,207.13
23.72,197.5967
23.74,196.2518
23.76,207.1096
23.78,204.4426
23.8,196.3903
23.82,211.5933
23.84,189.1894
23.86,206.1594
23.88,205.931
23.9,196.9045
23.92,203.2613
23.94,187.4889
23.96,209.2403
23.98,198.151
24.0,194.7728
24.02,210.4901
24.04,192.9566
24.06,185.9154
24.08,184.4337
24.1,206.0601
24.12,187.1957
24.14,217.5479
24.16,179.1807
24.18,216.9646
24.2,202.1102
24.22,199.0329
24.24,194.5508
24.26,203.9914
24.28,199.6237
24.3,211.033
24.32,201.1423
24.34,201.503
24.36,196.3639
24.38,199.4305
24.4,203.078
24.42,182.8983
24.44,186.5181
24.46,207.4326
24.48,201.7087
24.5,198.1602
24.52,200.1843
24.54,203.4758
24.56,194.6024
24.58,192.217
24.6,201.9585
24.62,190.2163
24.64,204.0825
24.66,182.9742
24.68,210.2916
24.7,204.726
24.72,202.5603
24.74,209.8269
24.76,216.6547
24.78,210.1437
24.8,181.5913
24.82,187.2042
24.84,193.7518
24.86,200.2609
24.88,205.1766
24.9,192.7426
24.92,201.8677
24.94,192.4462
24.96,193.8848
24.98,185.9334
25.0,190.7677
25.02,186.4832
25.04,190.2413
25.06,210.5364
25.08,190.506
25.1,226.3238
25.12,204.9332
25.14,201.8484
25.16,191.4164
25.18,207.0031
25.2,194.2436
25.22,201.2201
25.24,225.6008
25.26,199.0394
25.28,211.4927
25.3,192.9682
25.32,199.6501
25.34,217.708
25.36,193.7303
25.38,218.1245
25.4,207.0775
25.42,194.3753
25.44,206.3241
25.46,209.7255
25.48,206.2181
25.5,184.2978
25.52,192.7286
25.54,197.5248
25.56,199.2557
25.58,206.2067
25.6,201.777
25.62,186.6466
25.64,203.802
25.66,206.1059
25.68,205.5979
25.7,210.8078
25.72,208.3392
25.74,204.5918
25.76,199.2983
25.78,183.3904
25.8,204.2962
25.82,202.0769
25.84,202.7158
25.86,187.2325
25.88,189.1894
25.9,210.5315
25.92,199.6044
25.94,206.815
25.96,200.2832
25.98,200.2976
26.0,209.3828
26.02,194.8396
26.04,200.9612
26.06,195.3772
26.08,195.655
26.1,196.9083
26.12,202.2213
26.14,195.2125
26.16,212.5576
26.18,191.0539
26.2,198.1313
26.22,195.6027
26.24,214.4698
26.26,201.9655
26.28,210.3184
26.3,185.1444
26.32,202.6705
26.34,208.8963
26.36,200.8228
26.38,210.6548
26.4,194.8271
26.42,214.0935
26.44,222.989
26.46,196.3716
26.48,195.545
26.5,214.5338
26.52,215.7957
26.54,194.7714
26.56,195.7981
26.58,197.1822
26.6,186.5555
26.62,190.8135
26.64,189.9586
26.66,192.322
26.68,199.6532
26.7,202.3421
26.72,215.505
26.74,190.0165
26.76,209.8432
26.78,197.8601
26.8,199.5054
26.82,206.7482
26.84,188.7728
26.86,203.8241
26.88,201.6645
26.9,204.9245
26.92,202.8917
26.94,224.553
26.96,193.6226
26.98,194.69
27.0,193.7686
27.02,194.4452
27.04,193.6261
27.06,211.8902
27.08,214.205
27.1,194.2925
27.12,191.6764
27.14,204.7142
27.16,194.4778
27.18,206.3293
27.2,202.0292
27.22,184.8426
27.24,215.4751
27.26,217.9588
27.28,193.8721
27.3,196.123
27.32,202.8587
27.34,203.3446
27.36,206.5854
27.38,220.102
27.4,198.2305
27.42,192.017
27.44,186.2068
27.46,192.6907
27.48,199.6687
27.5,217.9456
27.52,194.8239
27.54,202.2379
27.56,199.8358
27.58,211.8839
27.6,225.2693
27.62,194.6913
27.64,195.1056
27.66,210.4416
27.68,206.8189
27.7,218.4671
27.72,205.8393
27.74,196.4071
27.76,205.9065
27.78,211.087
27.8,208.2048
27.82,205.0727
27.84,210.6667
27.86,211.693
27.88,213.8216
27.9,206.4871
27.92,198.3288
27.94,201.4671
27.96,212.0651
27.98,191.8306
28.0,203.6867
28.02,196.0666
28.04,200.2874
28.06,212.7845
28.08,201.911
28.1,200.4644
28.12,186.4014
28.14,207.4625
28.16,206.4548
28.18,221.6325
28.2,196.9222
28.22,202.1915
28.24,202.4938
28.26,215.7745
28.28,199.047
28.3,202.7902
28.32,206.079
28.34,201.8661
28.36,195.5357
28.38,201.9409
28.4,210.7363
28.42,189.7348
28.44,201.3297
28.46,192.9988
28.48,211.9505
28.5,184.7681
28.52,194.4108
28.54,203.7721
28.56,215.6552
28.58,199.3425
28.6,194.448
28.62,218.8116
28.64,185.5199
28.66,178.0119
28.68,204.4001
28.7,194.9795
28.72,189.7877
28.74,207.0836
28.76,202.438
28.78,194.3592
28.8,187.197
28.82,208.7246
28.84,206.502
28.86,199.0082
28.88,218.4664
28.9,189.2992
28.92,184.7447
28.94,193.0809
28.96,199.5441
28.98,202.4334
29.0,197.5876
29.02,203.5206
29.04,187.4846
29.06,214.4376
29.08,199.1785
29.1,211.173
29.12,203.4273
29.14,204.5675
29.16,205.6977
29.18,204.4771
29.2,206.4272
29.22,213.2915
29.24,201.9652
29.26,207.09
29.28,199.1026
29.3,214.4012
29.32,193.2361
29.34,218.0094
29.36,199.5984
29.38,185.6922
29.4,201.281
29.42,193.1895
29.44,208.4064
29.46,193.4738
29.48,195.5382
29.5,181.1046
29.52,195.4769
29.54,175.7612
29.56,184.161
29.58,207.6041
29.6,207.858
29.62,204.2546
29.64,190.3302
29.66,199.5229
29.68,199.964
29.7,188.4164
29.72,215.034
29.74,208.7736
29.76,197.7904
29.78,200.2689
29.8,202.0838
29.82,179.5827
29.84,197.5282
29.86,193.1802
29.88,189.9838
29.9,197.189
29.92,217.9769
29.94,206.4084
29.96,194.2882
29.98,205.7258
30.0,213.9936
30.02,209.2463
30.04,200.5963
30.06,193.5306
30.08,206.9822
30.1,203.9349
30.12,208.9519
30.14,206.3517
30.16,210.4955
30.18,194.6476
30.2,213.1739
30.22,201.976
30.24,220.7526
30.26,193.1081
30.28,217.3596
30.3,201.9791
30.32,193.4858
30.34,195.1611
30.36,196.7965
30.38,204.2417
30.4,205.2284
30.42,194.263
30.44,199.7565
30.46,221.4227
30.48,217.2754
30.5,204.3632
30.52,200.38
30.54,201.2003
30.56,206.1352
30.58,189.7721
30.6,197.4262
30.62,183.3142
30.64,203.9922
30.66,206.472
30.68,195.1681
30.7,215.7399
30.72,187.7423
30.74,185.3563
30.76,202.2445
30.78,210.471
30.8,216.8393
30.82,195.4112
30.84,210.7868
30.86,199.6149
30.88,198.2737
30.9,208.8366
30.92,206.5232
30.94,184.2361
30.96,214.7654
30.98,213.8009
31.0,193.7444
31.02,203.958
31.04,204.9403
31.06,202.6067
31.08,194.4969
31.1,193.2838
31.12,199.7445
31.14,211.7273
31.16,205.436
31.18,196.2939
31.2,207.717
31.22,171.5146
31.24,211.4877
31.26,182.6029
31.28,196.3756
31.3,188.8033
31.32,187.0532
31.34,211.6083
31.36,195.323
31.38,203.465
31.4,199.5308
31.42,204.7704
31.44,200.7682
31.46,187.1701
31.48,209.9627
31.5,195.0624
31.52,184.4342
31.54,195.7188
31.56,215.0076
31.58,208.5022
31.6,196.5135
31.62,196.5074
31.64,196.7836
31.66,220.7675
31.68,203.8194
31.7,204.3004
31.72,210.3028
31.74,202.3879
31.76,197.4096
31.78,198.0365
31.8,199.284
31.82,199.6278
31.84,207.2763
31.86,200.5195
31.88,207.3264
31.9,199.1928
31.92,200.7864
31.94,180.018
31.96,209.1633
31.98,203.4649
32.0,209.9801
32.02,171.0374
32.04,220.8837
32.06,198.6041
32.08,211.0818
32.1,189.6009
32.12,206.1277
32.14,189.4658
32.16,193.7623
32.18,219.1403
32.2,198.0932
32.22,202.1743
32.24,208.7007
32.26,204.9568
32.28,201.5042
32.3,203.6496
32.32,224.0342
32.34,199.4238
32.36,202.011
32.38,210.5065
32.4,211.0553
32.42,211.8703
32.44,206.3873
32.46,188.57
32.48,216.3343
32.5,188.5365
32.52,203.0264
32.54,192.4572
32.56,199.3586
32.58,203.2876
32.6,203.2136
32.62,204.2192
32.64,216.1371
32.66,204.5353
32.68,197.5584
32.7,209.6409
32.72,211.8947
32.74,187.7239
32.76,205.974
32.78,207.0117
32.8,197.0244
32.82,213.7571
32.84,198.4994
32.86,201.2558
32.88,198.2693
32.9,200.1558
32.92,189.0372
32.94,185.5995
32.96,215.9451
32.98,191.5304
33.0,190.0861
33.02,178.4661
33.04,193.6104
33.06,186.7691
33.08,216.4202
33.1,210.0982
33.12,193.1185
33.14,222.5244
33.16,209.8177
33.18,196.7517
33.2,175.0059
33.22,222.9094
33.24,186.1043
33.26,183.546
33.28,210.2257
33.3,224.3975
33.32,213.8427
33.34,205.6391
33.36,205.9475
33.38,208.5342
33.4,207.5893
33.42,202.8119
33.44,201.042
33.46,199.3741
33.48,192.4604
33.5,197.1932
33.52,183.0704
33.54,199.0166
33.56,190.1141
33.58,188.9641
33.6,201.7989
33.62,213.92
33.64,209.1832
33.66,184.295
33.68,190.1037
33.7,209.4077
33.72,190.1751
33.74,197.7537
33.76,205.5005
33.78,190.3166
33.8,201.0538
33.82,186.6597
33.84,193.9863
33.86,203.1978
33.88,184.0701
33.9,204.4047
33.92,199.8036
33.94,205.5249
33.96,202.2391
33.98,213.6414
34.0,201.2522
34.02,195.7059
34.04,201.223
34.06,205.433
34.08,200.4886
34.1,200.4059
34.12,192.9801
34.14,193.371
34.16,185.9739
34.18,217.4958
34.2,187.5614
34.22,193.0709
34.24,192.8159
34.26,208.9492
34.28,197.0505
34.3,212.4774
34.32,193.2651
34.34,202.7899
34.36,191.6465
34.38,221.4515
34.4,188.124
34.42,203.0982
34.44,206.3378
34.46,204.138
34.48,198.1471
34.5,198.7018
34.52,200.4381
34.54,198.53
34.56,209.6388
34.58,222.1052
34.6,194.4251
34.62,186.302
34.64,199.1172
34.66,225.7971
34.68,191.9633
34.7,216.3912
34.72,216.777
34.74,194.4641
34.76,205.6898
34.78,216.284
34.8,196.2087
34.82,197.9642
34.84,194.1832
34.86,189.8525
34.88,193.5078
34.9,187.764
34.92,200.3576
34.94,192.3756
34.96,202.6398
34.98,185.5245
35.0,206.7881
35.02,218.3334
35.04,205.7716
35.06,262.8962
35.08,334.0784
35.1,412.3206
35.12,586.7268
35.14,750.0678
35.16,913.6135
35.18,1050.8058
35.2,1105.5833
35.22,1052.1236
35.24,926.0512
35.26,736.6709
35.28,571.6947
35.3,410.2798
35.32,320.6895
35.34,250.1166
35.36,218.3537
35.38,222.359
35.4,214.3924
35.42,207.1749
35.44,189.3788
35.46,196.9112
35.48,212.1478
35.5,201.4205
35.52,223.1939
35.54,203.9333
35.56,201.9205
35.58,196.9088
35.6,201.3354
35.62,198.4753
35.64,207.0811
35.66,209.567
35.68,192.1401
35.7,186.6877
35.72,181.6379
35.74,205.0799
35.76,188.9663
35.78,178.4711
35.8,203.8858
35.82,224.93
35.84,199.9393
35.86,208.3849
35.88,200.8183
35.9,199.0111
35.92,209.1908
35.94,197.0973
35.96,202.6739
35.98,203.217
36.0,193.3191
36.02,209.9204
36.04,198.2504
36.06,192.4425
36.08,205.3651
36.1,191.0153
36.12,200.2818
36.14,199.9088
36.16,210.859
36.18,204.747
36.2,199.7497
36.22,208.1777
36.24,213.9021
36.26,205.5781
36.28,200.1035
36.3,186.8816
36.32,189.3489
36.34,196.9478
36.36,193.9049
36.38,198.1303
36.4,200.5665
36.42,205.2969
36.44,199.295
36.46,204.865
36.48,200.6447
36.5,180.2453
36.52,190.6066
36.54,198.5591
36.56,187.9031
36.58,205.9993
36.6,215.3075
36.62,212.1876
36.64,197.8656
36.66,214.9073
36.68,201.4867
36.7,196.6291
36.72,193.866
36.74,196.9753
36.76,196.1182
36.78,201.7042
36.8,201.6057
36.82,200.0305
36.84,204.3694
36.86,211.9065
36.88,209.4955
36.9,185.151
36.92,174.4608
36.94,209.3432
36.96,186.3312
36.98,197.7523
37.0,188.2989
37.02,181.9802
37.04,205.4146
37.06,207.5916
37.08,194.2349
37.1,174.0896
37.12,194.5376
37.14,203.918
37.16,185.2109
37.18,201.8336
37.2,199.8469
37.22,205.7929
37.24,201.1958
37.26,190.2693
37.28,211.9657
37.3,198.4147
37.32,199.727
37.34,190.6673
37.36,195.5672
37.38,191.152
37.4,198.2705
37.42,217.1171
37.44,186.281
37.46,183.8644
37.48,214.7117
37.5,197.9068
37.52,193.3093
37.54,210.399
37.56,193.9438
37.58,218.2601
37.6,206.7793
37.62,195.1209
37.64,221.5731
37.66,193.9429
37.68,207.421
37.7,202.9929
37.72,213.0174
37.74,215.6151
37.76,200.32
37.78,192.4658
37.8,204.5997
37.82,193.2228
37.84,220.1339
37.86,201.3654
37.88,196.3468
37.9,201.8468
37.92,186.5287
37.94,190.2839
37.96,212.0041
37.98,193.4311
38.0,189.5309
38.02,205.3665
38.04,211.857
38.06,207.1895
38.08,209.9605
38.1,192.432
38.12,185.7819
38.14,215.0133
38.16,196.7732
38.18,197.4917
38.2,213.2819
38.22,205.5623
38.24,204.5589
38.26,221.65
38.28,193.5648
38.3,209.2784
38.32,200.5701
38.34,202.6859
38.36,215.2847
38.38,205.0784
38.4,205.383
38.42,210.7251
38.44,196.3505
38.46,191.6079
38.48,189.5519
38.5,180.3364
38.52,220.5621
38.54,188.9679
38.56,197.7875
38.58,197.2319
38.6,203.0741
38.62,208.1574
38.64,208.6047
38.66,194.1692
38.68,198.3288
38.7,202.8258
38.72,197.5131
38.74,216.0735
38.76,204.9097
38.78,207.3488
38.8,206.6288
38.82,211.7347
38.84,201.8102
38.86,187.0317
38.88,203.9969
38.9,193.4864
38.92,194.7138
38.94,205.8636
38.96,212.3828
38.98,200.2127
39.0,203.0883
39.02,217.0221
39.04,202.4075
39.06,226.0168
39.08,205.6551
39.1,182.3924
39.12,207.5334
39.14,203.8116
39.16,212.8975
39.18,206.7318
39.2,198.6154
39.22,187.757
39.24,197.9098
39.26,191.4948
39.28,194.1948
39.3,205.8858
39.32,216.699
39.34,203.9467
39.36,188.0412
39.38,204.446
39.4,211.9663
39.42,193.9022
39.44,198.6598
39.46,200.1469
39.48,192.151
39.5,206.4828
39.52,198.7905
39.54,204.1953
39.56,191.1251
39.58,195.6254
39.6,207.2238
39.62,196.2717
39.64,217.2696
39.66,196.0036
39.68,202.2468
39.7,209.3259
39.72,185.8163
39.74,182.3919
39.76,184.7434
39.78,212.6258
39.8,194.4814
39.82,225.582
39.84,194.3575
39.86,201.8455
39.88,215.4211
39.9,220.0609
39.92,220.615
39.94,212.0837
39.96,210.2406
39.98,205.9253
40.0,207.7836
40.02,194.4881
40.04,191.818
40.06,199.9663
40.08,198.2982
40.1,195.4677
40.12,206.9639
40.14,209.5531
40.16,200.8841
40.18,214.7753
40.2,188.5831
40.22,198.0634
40.24,192.8318
40.26,181.3346
40.28,199.1732
40.3,198.7825
40.32,215.1345
40.34,206.3081
40.36,189.7581
40.38,218.5409
40.4,212.2103
40.42,205.821
40.44,197.7352
40.46,190.4056
40.48,196.2779
40.5,210.8875
40.52,218.8459
40.54,215.4324
40.56,195.1115
40.58,188.8038
40.6,201.4089
40.62,182.3156
40.64,203.2317
40.66,198.524
40.68,195.3396
40.7,184.053
40.72,205.136
40.74,194.673
40.76,188.3008
40.78,171.2774
40.8,199.7249
40.82,217.7225
40.84,216.6126
40.86,195.429
40.88,193.9779
40.9,204.6877
40.92,190.0161
40.94,203.0179
40.96,207.6608
40.98,212.2693
41.0,198.9985
41.02,197.9633
41.04,191.2202
41.06,191.7312
41.08,197.7352
41.1,203.6737
41.12,209.1358
41.14,191.9682
41.16,214.9269
41.18,197.2888
41.2,199.7863
41.22,192.5279
41.24,175.7576
41.26,208.8405
41.28,207.3684
41.3,197.1867
41.32,200.6699
41.34,205.1594
41.36,184.3745
41.38,194.7095
41.4,207.9426
41.42,187.4571
41.44,202.9356
41.46,186.4342
41.48,204.6643
41.5,199.6436
41.52,183.8487
41.54,211.6474
41.56,192.6541
41.58,191.8975
41.6,202.0057
41.62,211.4864
41.64,189.8418
41.66,200.6168
41.68,204.2882
41.7,206.9311
41.72,201.7644
41.74,196.3297
41.76,191.7241
41.78,200.8614
41.8,189.2786
41.82,170.7865
41.84,204.3656
41.86,209.0393
41.88,176.3707
41.9,189.9027
41.92,206.1915
41.94,220.575
41.96,200.2079
41.98,192.72
42.0,198.171
42.02,213.7488
42.04,193.5404
42.06,192.0081
42.08,195.1726
42.1,190.4667
42.12,201.2267
42.14,216.2468
42.16,203.2308
42.18,197.4765
42.2,197.0819
42.22,184.3681
42.24,208.8311
42.26,199.2216
42.28,198.1952
42.3,231.9311
42.32,202.9875
42.34,192.4821
42.36,195.7364
42.38,211.4845
42.4,201.1327
42.42,185.6172
42.44,209.1923
42.46,193.3186
42.48,218.733
42.5,210.8005
42.52,195.5268
42.54,212.8102
42.56,200.6786
42.58,208.5277
42.6,204.8473
42.62,191.5364
42.64,193.5645
42.66,210.2996
42.68,196.6522
42.7,195.9635
42.72,190.4488
42.74,204.236
42.76,220.6252
42.78,189.3247
42.8,200.2422
42.82,214.1222
42.84,199.2036
42.86,204.5237
42.88,189.3761
42.9,204.2831
42.92,198.1286
42.94,209.8573
42.96,211.8739
42.98,225.8956
43.0,205.7963
43.02,203.258
43.04,201.9438
43.06,196.4683
43.08,203.3848
43.1,197.046
43.12,201.6846
43.14,213.176
43.16,189.9346
43.18,211.3988
43.2,213.1712
43.22,198.8193
43.24,178.7815
43.26,193.9218
43.28,212.9699
43.3,199.7713
43.32,190.007
43.34,194.9523
43.36,208.4062
43.38,205.4673
43.4,197.6107
43.42,196.3318
43.44,196.0824
43.46,190.7759
43.48,216.1538
43.5,196.7768
43.52,212.1716
43.54,215.2132
43.56,209.9831
43.58,195.6838
43.6,204.0373
43.62,199.758
43.64,190.963
43.66,203.2436
43.68,188.2096
43.7,211.8768
43.72,195.3538
43.74,202.0116
43.76,202.8329
43.78,197.411
43.8,205.8669
43.82,195.251
43.84,208.713
43.86,186.5402
43.88,201.2638
43.9,219.3893
43.92,189.9967
43.94,193.2226
43.96,205.1391
43.98,201.7958
44.0,203.5063
44.02,204.8919
44.04,206.3472
44.06,211.097
44.08,204.0982
44.1,197.5874
44.12,206.7257
44.14,218.9988
44.16,198.6737
44.18,190.2547
44.2,211.0708
44.22,198.7962
44.24,178.2733
44.26,208.4742
44.28,194.6467
44.3,199.0947
44.32,203.3198
44.34,201.905
44.36,207.0945
44.38,195.6451
44.4,205.1311
44.42,197.4045
44.44,207.3881
44.46,206.1537
44.48,190.6456
44.5,210.8598
44.52,194.6404
44.54,208.0806
44.56,203.6729
44.58,218.3818
44.6,197.7653
44.62,196.5068
44.64,199.8058
44.66,196.9682
44.68,207.9994
44.7,183.8369
44.72,189.4632
44.74,189.322
44.76,209.5031
44.78,217.1061
44.8,198.9555
44.82,198.3118
44.84,200.7005
44.86,211.6188
44.88,190.7265
44.9,202.3837
44.92,209.752
44.94,205.0109
44.96,201.8958
44.98,210.0105
45.0,172.9677
45.02,206.7788
45.04,193.4592
45.06,181.6937
45.08,205.112
45.1,213.7366
45.12,198.6255
45.14,209.5287
45.16,216.1228
45.18,213.1491
45.2,216.3996
45.22,207.4213
45.24,200.7543
45.26,183.9803
45.28,197.5394
45.3,191.5675
45.32,221.7094
45.34,198.2411
45.36,201.232
45.38,205.5149
45.4,200.436
45.42,216.9505
45.44,193.7735
45.46,201.9461
45.48,192.5753
45.5,186.7998
45.52,193.8823
45.54,199.6296
45.56,195.707
45.58,193.0758
45.6,185.9368
45.62,199.1689
45.64,184.9528
45.66,207.6006
45.68,200.8244
45.7,185.4245
45.72,196.9079
45.74,192.4784
45.76,203.1917
45.78,213.4045
45.8,181.2483
45.82,201.1503
45.84,198.3987
45.86,206.7134
45.88,202.132
45.9,192.4803
45.92,196.8095
45.94,192.0397
45.96,210.7601
45.98,200.2131
46.0,219.0119
46.02,199.3934
46.04,192.9159
46.06,184.8629
46.08,181.9686
46.1,184.1586
46.12,202.6713
46.14,205.0873
46.16,184.1881
46.18,208.9504
46.2,195.1694
46.22,201.4679
46.24,216.1222
46.26,208.9684
46.28,197.3147
46.3,191.0881
46.32,178.4818
46.34,192.8085
46.36,197.8887
46.38,190.1282
46.4,198.6874
46.42,200.7685
46.44,197.7514
46.46,193.5
46.48,201.6865
46.5,204.4194
46.52,189.096
46.54,214.1093
46.56,199.0141
46.58,200.1885
46.6,207.0821
46.62,202.3322
46.64,209.5314
46.66,202.8712
46.68,193.8756
46.7,203.615
46.72,188.5627
46.74,201.0856
46.76,199.6677
46.78,197.9188
46.8,198.7146
46.82,181.1815
46.84,194.5128
46.86,200.9284
46.88,201.5986
46.9,189.7232
46.92,212.6571
46.94,191.3383
46.96,209.6946
46.98,204.2719
47.0,193.5377
47.02,217.7531
47.04,188.0636
47.06,209.1915
47.08,210.0058
47.1,193.2938
47.12,213.9247
47.14,197.4995
47.16,202.8869
47.18,202.6032
47.2,198.6569
47.22,208.1081
47.24,207.9349
47.26,182.5147
47.28,213.0434
47.3,183.3751
47.32,210.3255
47.34,211.2671
47.36,189.0903
47.38,195.8919
47.4,188.943
47.42,197.8508
47.44,196.9197
47.46,207.7966
47.48,213.1031
47.5,213.9568
47.52,194.3783
47.54,197.9078
47.56,183.1656
47.58,191.9413
47.6,209.6485
47.62,216.1558
47.64,187.6565
47.66,194.0754
47.68,199.7359
47.7,202.8016
47.72,191.904
47.74,204.2406
47.76,195.2616
47.78,199.8555
47.8,205.4628
47.82,200.0642
47.84,195.6361
47.86,198.9039
47.88,199.1164
47.9,196.2999
47.92,197.412
47.94,215.9865
47.96,205.6092
47.98,197.0452
48.0,206.9695
48.02,196.6618
48.04,211.7312
48.06,203.6964
48.08,198.927
48.1,204.4772
48.12,184.2912
48.14,188.7323
48.16,188.0607
48.18,201.4294
48.2,217.3251
48.22,222.313
48.24,206.3805
48.26,205.0084
48.28,181.9894
48.3,194.5733
48.32,192.1222
48.34,193.7915
48.36,198.3186
48.38,195.2791
48.4,180.207
48.42,207.4791
48.44,189.2726
48.46,202.3925
48.48,220.7408
48.5,190.8062
48.52,174.6971
48.54,197.14
48.56,211.0096
48.58,219.5835
48.6,187.7045
48.62,204.967
48.64,195.3469
48.66,198.9405
48.68,226.4434
48.7,184.9703
48.72,202.5374
48.74,204.6769
48.76,210.8579
48.78,200.9798
48.8,203.0805
48.82,196.0835
48.84,202.6913
48.86,196.5681
48.88,206.2157
48.9,196.3039
48.92,203.771
48.94,199.7074
48.96,211.2605
48.98,199.4861
49.0,182.2697
49.02,212.6192
49.04,190.9427
49.06,193.4623
49.08,194.0434
49.1,213.7444
49.12,178.6433
49.14,231.3775
49.16,210.5606
49.18,202.2324
49.2,199.4511
49.22,202.8555
49.24,205.2112
49.26,206.4522
49.28,205.556
49.3,200.8958
49.32,198.0266
49.34,198.4873
49.36,198.0509
49.38,211.3377
49.4,205.9356
49.42,170.5961
49.44,206.559
49.46,201.9474
49.48,199.8129
49.5,196.1148
49.52,211.2411
49.54,209.4753
49.56,192.2712
49.58,204.0705
49.6,190.2834
49.62,186.2038
49.64,193.7328
49.66,208.6239
49.68,209.5313
49.7,205.1309
49.72,207.251
49.74,205.1618
49.76,193.5852
49.78,204.3192
49.8,208.0041
49.82,207.5429
49.84,211.8891
49.86,207.083
49.88,203.5145
49.9,210.7015
49.92,199.7348
49.94,191.1813
49.96,198.3693
49.98,192.551
50.0,193.2482
50.02,198.5548
50.04,192.0758
50.06,196.9204
50.08,181.0639
50.1,202.1329
50.12,200.0121
50.14,191.8291
50.16,206.5925
50.18,209.3757
50.2,183.9244
50.22,192.3728
50.24,192.3086
50.26,190.6011
50.28,208.2952
50.3,198.0629
50.32,197.3578
50.34,179.969
50.36,206.3729
50.38,187.6517
50.4,200.7
50.42,202.9933
50.44,214.0667
50.46,187.8384
50.48,171.5977
50.5,205.1712
50.52,223.9574
50.54,222.6037
50.56,218.937
50.58,221.7601
50.6,248.6718
50.62,249.6341
50.64,288.1748
50.66,317.648
50.68,356.6278
50.7,409.5558
50.72,421.7689
50.74,445.4914
50.76,476.6792
50.78,476.3688
50.8,493.0529
50.82,489.9668
50.84,471.694
50.86,452.1046
50.88,409.6205
50.9,393.1695
50.92,346.0277
50.94,312.5003
50.96,280.1322
50.98,260.9215
51.0,248.8516
51.02,218.0052
51.04,210.2593
51.06,207.177
51.08,192.4936
51.1,195.1401
51.12,197.0306
51.14,209.6705
51.16,203.0858
51.18,202.1554
51.2,208.6096
51.22,198.6706
51.24,203.9234
51.26,198.9754
51.28,202.6566
51.3,194.1735
51.32,175.6122
51.34,198.6573
51.36,214.2275
51.38,209.2622
51.4,209.654
51.42,212.3613
51.44,200.8866
51.46,201.9732
51.48,193.8235
51.5,196.8393
51.52,206.1577
51.54,212.0388
51.56,198.6055
51.58,195.4981
51.6,200.0053
51.62,206.0121
51.64,185.5615
51.66,177.0382
51.68,194.4946
51.7,187.7929
51.72,194.9186
51.74,198.5222
51.76,195.4675
51.78,214.5247
51.8,203.2674
51.82,203.0047
51.84,206.2221
51.86,188.6117
51.88,210.3911
51.9,199.2424
51.92,206.7048
51.94,189.2814
51.96,184.4624
51.98,208.1789
52.0,203.7641
52.02,190.9795
52.04,191.3034
52.06,211.2543
52.08,188.1059
52.1,216.4267
52.12,190.9938
52.14,206.3839
52.16,196.7138
52.18,206.0319
52.2,194.5589
52.22,198.3721
52.24,200.4092
52.26,189.9781
52.28,207.4082
52.3,194.8679
52.32,197.714
52.34,190.0565
52.36,174.3767
52.38,198.0897
52.4,224.1262
52.42,207.846
52.44,199.8074
52.46,197.3711
52.48,200.2247
52.5,205.4712
52.52,188.1919
52.54,211.1432
52.56,207.1538
52.58,207.1819
52.6,204.3848
52.62,200.1962
52.64,206.7286
52.66,205.9181
52.68,196.4596
52.7,194.264
52.72,201.0186
52.74,215.4902
52.76,187.6089
52.78,185.3247
52.8,201.6476
52.82,200.5089
52.84,201.7334
52.86,202.4395
52.88,197.768
52.9,214.8986
52.92,183.991
52.94,191.715
52.96,198.9675
52.98,183.5681
53.0,198.2415
53.02,216.6147
53.04,200.2089
53.06,202.307
53.08,187.3984
53.1,193.8364
53.12,196.248
53.14,196.8228
53.16,212.8164
53.18,205.5769
53.2,188.8854
53.22,202.465
53.24,204.9822
53.26,211.4015
53.28,215.8054
53.3,189.8491
53.32,191.8914
53.34,187.4242
53.36,197.6598
53.38,204.6636
53.4,209.8733
53.42,199.2405
53.44,196.8015
53.46,201.5176
53.48,191.6486
53.5,220.8954
53.52,183.9234
53.54,201.8474
53.56,220.2361
53.58,200.068
53.6,198.0996
53.62,196.4255
53.64,198.1961
53.66,213.7285
53.68,177.8814
53.7,215.3343
53.72,185.7604
53.74,197.3335
53.76,195.7076
53.78,205.8855
53.8,184.0188
53.82,204.6217
53.84,220.2431
53.86,186.3683
53.88,201.8971
53.9,193.3802
53.92,204.2589
53.94,200.1915
53.96,193.5851
53.98,204.8787
54.0,218.0435
54.02,198.091
54.04,207.1976
54.06,187.0673
54.08,190.4356
54.1,204.7241
54.12,214.8412
54.14,203.5561
54.16,196.8694
54.18,199.9929
54.2,187.4959
54.22,206.0452
54.24,208.8233
54.26,195.4791
54.28,195.2996
54.3,202.6588
54.32,195.6328
54.34,199.3387
54.36,220.9972
54.38,197.5297
54.4,196.4166
54.42,193.5246
54.44,207.4419
54.46,198.1878
54.48,193.5063
54.5,213.213
54.52,214.196
54.54,193.9958
54.56,181.3346
54.58,210.0751
54.6,193.1537
54.62,207.9063
54.64,180.299
54.66,208.926
54.68,187.8883
54.7,207.3076
54.72,200.1427
54.74,190.4606
54.76,195.9296
54.78,206.8632
54.8,201.0589
54.82,205.8441
54.84,219.7644
54.86,184.3576
54.88,216.1721
54.9,201.0436
54.92,191.0122
54.94,186.6969
54.96,198.1088
54.98,209.2165
55.0,198.7245
55.02,215.1115
55.04,185.4882
55.06,199.8791
55.08,187.4761
55.1,203.6363
55.12,208.8689
55.14,195.7924
55.16,173.9579
55.18,201.9895
55.2,204.3674
55.22,204.0429
55.24,212.3578
55.26,189.2895
55.28,206.8022
55.3,211.9251
55.32,182.2141
55.34,203.1965
55.36,194.9582
55.38,199.1848
55.4,203.4768
55.42,195.1277
55.44,193.2429
55.46,200.3415
55.48,189.1275
55.5,189.1417
55.52,206.7937
55.54,188.5121
55.56,206.6631
55.58,204.6259
55.6,182.7419
55.62,193.2244
55.64,211.9411
55.66,190.1883
55.68,195.356
55.7,204.6206
55.72,207.8339
55.74,197.4846
55.76,194.0249
55.78,214.2237
55.8,217.389
55.82,209.7886
55.84,200.8532
55.86,191.9173
55.88,191.6956
55.9,205.2251
55.92,204.184
55.94,214.016
55.96,206.5045
55.98,184.9692
56.0,210.5195
56.02,190.0194
56.04,196.1603
56.06,202.502
56.08,219.9567
56.1,231.0992
56.12,206.0672
56.14,198.168
56.16,205.3451
56.18,208.8766
56.2,196.7933
56.22,217.9521
56.24,202.3007
56.26,204.9774
56.28,206.6592
56.3,204.2159
56.32,208.3894
56.34,193.8275
56.36,194.417
56.38,188.9985
56.4,204.395
56.42,207.7894
56.44,204.5777
56.46,216.7449
56.48,199.944
56.5,206.6874
56.52,189.083
56.54,196.129
56.56,206.9554
56.58,208.491
56.6,197.0603
56.62,199.284
56.64,184.8213
56.66,196.4297
56.68,208.9038
56.7,205.7521
56.72,205.0067
56.74,200.4977
56.76,200.0706
56.78,193.3968
56.8,206.9883
56.82,204.2097
56.84,204.9202
56.86,194.7397
56.88,178.4666
56.9,210.9715
56.92,195.2116
56.94,191.3722
56.96,206.9348
56.98,196.0799
57.0,210.5994
57.02,206.1701
57.04,206.8357
57.06,186.3404
57.08,212.1194
57.1,202.6125
57.12,196.3072
57.14,201.4339
57.16,182.2376
57.18,204.0865
57.2,189.7063
57.22,186.4733
57.24,184.7764
57.26,211.1269
57.28,193.7074
57.3,215.3373
57.32,194.642
57.34,182.9264
57.36,188.8348
57.38,212.3581
57.4,198.441
57.42,194.5171
57.44,201.6002
57.46,205.0178
57.48,211.174
57.5,214.485
57.52,196.4023
57.54,186.7395
57.56,195.8653
57.58,202.6028
57.6,190.3624
57.62,190.4285
57.64,203.4379
57.66,199.5135
57.68,200.328
57.7,192.415
57.72,197.696
57.74,190.7577
57.76,208.902
57.78,210.3525
57.8,181.5381
57.82,190.7049
57.84,185.0347
57.86,193.4998
57.88,199.1656
57.9,185.5035
57.92,190.7814
57.94,189.9604
57.96,202.0727
57.98,200.6934
58.0,192.7826
58.02,201.7682
58.04,194.5332
58.06,197.2834
58.08,216.7345
58.1,213.4046
58.12,187.0042
58.14,208.2973
58.16,208.114
58.18,188.5174
58.2,208.1878
58.22,215.3793
58.24,188.7746
58.26,190.825
58.28,210.1766
58.3,202.715
58.32,205.5148
58.34,203.4059
58.36,203.907
58.38,186.7353
58.4,210.4732
58.42,211.6959
58.44,197.7061
58.46,199.5652
58.48,184.6889
58.5,205.1425
58.52,205.7206
58.54,199.3781
58.56,211.2435
58.58,196.6592
58.6,205.6461
58.62,189.8034
58.64,199.7645
58.66,198.2565
58.68,202.2531
58.7,196.3047
58.72,198.6853
58.74,208.2605
58.76,195.6324
58.78,183.9342
58.8,217.4958
58.82,213.8145
58.84,187.0774
58.86,206.8971
58.88,194.9703
58.9,202.6349
58.92,202.9422
58.94,197.6559
58.96,192.1623
58.98,193.0946
59.0,190.8381
59.02,191.6818
59.04,199.3282
59.06,192.8424
59.08,206.8205
59.1,214.8725
59.12,194.1995
59.14,202.394
59.16,204.9969
59.18,204.72
59.2,200.7596
59.22,207.4268
59.24,204.8225
59.26,187.6234
59.28,208.6916
59.3,208.8729
59.32,192.3671
59.34,200.3794
59.36,206.8333
59.38,197.9069
59.4,210.7298
59.42,223.6387
59.44,192.1401
59.46,186.1896
59.48,203.0382
59.5,207.2156
59.52,197.6913
59.54,214.5326
59.56,186.6139
59.58,206.9292
59.6,193.9414
59.62,217.1938
59.64,219.9252
59.66,192.3334
59.68,194.5044
59.7,208.5959
59.72,196.1287
59.74,199.5459
59.76,200.2539
59.78,180.8033
59.8,199.8616
59.82,193.1027
59.84,195.0688
59.86,214.4363
59.88,187.4349
59.9,208.1321
59.92,197.2104
59.94,197.2024
59.96,207.9037
59.98,203.4005
60.0,205.7061
60.02,209.6818
60.04,196.6869
60.06,193.8776
60.08,189.1485
60.1,191.7459
60.12,229.4909
60.14,212.4468
60.16,186.4893
60.18,186.7754
60.2,204.8187
60.22,205.4726
60.24,205.4888
60.26,197.4504
60.28,198.7455
60.3,203.2788
60.32,200.8589
60.34,177.807
60.36,197.702
60.38,191.4859
60.4,201.7521
60.42,229.8526
60.44,203.6748
60.46,196.8647
60.48,209.218
60.5,204.8269
60.52,204.2009
60.54,206.0685
60.56,220.5654
60.58,188.6911
60.6,204.7363
60.62,190.7362
60.64,205.5551
60.66,190.8131
60.68,195.8263
60.7,197.0491
60.72,209.7582
60.74,209.1845
60.76,187.5428
60.78,200.5493
60.8,192.9042
60.82,187.415
60.84,197.8298
60.86,196.9152
60.88,224.2672
60.9,204.3296
60.92,186.2238
60.94,194.3523
60.96,210.2138
60.98,220.8844
61.0,184.1402
61.02,181.2008
61.04,218.7097
61.06,203.8961
61.08,191.3171
61.1,205.3463
61.12,173.6425
61.14,200.0338
61.16,203.2782
61.18,209.2427
61.2,189.861
61.22,200.8569
61.24,190.7458
61.26,202.5538
61.28,191.0465
61.3,195.919
61.32,190.0418
61.34,206.5114
61.36,208.5845
61.38,197.6538
61.4,200.3824
61.42,185.5141
61.44,197.0032
61.46,199.498
61.48,226.2079
61.5,188.8803
61.52,214.6418
61.54,209.9686
61.56,202.8064
61.58,217.5862
61.6,203.7211
61.62,203.8916
61.64,199.4688
61.66,212.2357
61.68,210.9647
61.7,193.7432
61.72,186.8075
61.74,197.9702
61.76,191.9996
61.78,199.3648
61.8,212.3744
61.82,195.427
61.84,199.5718
61.86,200.5802
61.88,208.4843
61.9,177.5311
61.92,193.933
61.94,202.1128
61.96,212.0008
61.98,195.081
62.0,181.2345
62.02,206.1971
62.04,193.6464
62.06,188.1033
62.08,193.7565
62.1,198.1547
62.12,193.9526
62.14,177.9443
62.16,208.9707
62.18,212.7488
62.2,206.5152
62.22,188.6231
62.24,197.9851
62.26,199.9348
62.28,205.9879
62.3,206.6834
62.32,192.6583
62.34,200.82
62.36,204.5728
62.38,214.5582
62.4,207.0451
62.42,207.8906
62.44,200.8383
62.46,214.1046
62.48,204.0976
62.5,191.3891
62.52,214.0337
62.54,206.979
62.56,195.5696
62.58,195.2051
62.6,202.9658
62.62,204.6318
62.64,201.9729
62.66,203.1131
62.68,216.9996
62.7,210.7154
62.72,201.9064
62.74,209.4131
62.76,189.6748
62.78,203.9793
62.8,218.0931
62.82,197.8195
62.84,191.5237
62.86,193.4791
62.88,189.1037
62.9,192.1524
62.92,196.2949
62.94,185.9443
62.96,200.1562
62.98,209.0228
63.0,190.9224
63.02,215.1928
63.04,205.1079
63.06,210.3058
63.08,193.4217
63.1,208.5453
63.12,189.0807
63.14,208.9025
63.16,201.7184
63.18,205.5325
63.2,188.2441
63.22,191.0493
63.24,205.9723
63.26,190.5165
63.28,204.6321
63.3,186.3286
63.32,208.4817
63.34,187.6748
63.36,205.523
63.38,206.2563
63.4,193.0323
63.42,205.8203
63.44,202.6044
63.46,194.6116
63.48,189.9145
63.5,180.3737
63.52,203.4965
63.54,184.352
63.56,200.9534
63.58,197.3655
63.6,206.7914
63.62,196.9795
63.64,196.7055
63.66,207.3187
63.68,203.3506
63.7,203.1616
63.72,204.6927
63.74,184.6443
63.76,207.5679
63.78,206.1247
63.8,189.8332
63.82,197.5592
63.84,199.6069
63.86,198.655
63.88,203.3386
63.9,214.3137
63.92,210.8177
63.94,186.8778
63.96,206.2207
63.98,213.2893
64.0,203.8681
64.02,210.9098
64.04,220.1227
64.06,210.2371
64.08,202.4931
64.1,210.4509
64.12,201.4489
64.14,200.239
64.16,196.4859
64.18,215.6341
64.2,191.8157
64.22,215.3237
64.24,204.9986
64.26,186.0069
64.28,203.6765
64.3,178.9997
64.32,206.2551
64.34,208.8523
64.36,194.0764
64.38,201.2355
64.4,219.5416
64.42,194.9425
64.44,189.4109
64.46,214.8166
64.48,219.6259
64.5,200.037
64.52,210.1146
64.54,213.4148
64.56,192.5752
64.58,195.1469
64.6,212.3087
64.62,216.8501
64.64,205.6288
64.66,191.2019
64.68,219.8706
64.7,194.6903
64.72,196.6486
64.74,203.4234
64.76,215.5416
64.78,208.5398
64.8,204.1487
64.82,204.6329
64.84,200.4351
64.86,205.5814
64.88,174.7044
64.9,197.0339
64.92,202.4132
64.94,188.4899
64.96,203.8632
64.98,197.9553
65.0,217.5548
65.02,215.7302
65.04,195.3419
65.06,198.4916
65.08,199.2605
65.1,195.4834
65.12,201.9502
65.14,192.4172
65.16,188.6938
65.18,206.2271
65.2,206.2953
65.22,191.9568
65.24,208.9536
65.26,193.6842
65.28,202.5317
65.3,208.2034
65.32,199.6639
65.34,204.5474
65.36,194.8357
65.38,198.0353
65.4,197.9414
65.42,192.5342
65.44,198.2323
65.46,184.5138
65.48,195.0885
65.5,197.1512
65.52,197.4382
65.54,197.585
65.56,199.3824
65.58,204.7944
65.6,208.7452
65.62,193.5023
65.64,187.968
65.66,189.5796
65.68,195.128
65.7,196.4808
65.72,192.3
65.74,187.0388
65.76,195.4388
65.78,201.8143
65.8,205.9503
65.82,194.4258
65.84,195.87
65.86,190.733
65.88,199.6856
65.9,191.5157
65.92,205.7313
65.94,182.1413
65.96,196.4037
65.98,203.0111
66.0,201.8383
66.02,226.9303
66.04,203.498
66.06,189.9595
66.08,199.0454
66.1,182.2375
66.12,199.194
66.14,191.6694
66.16,209.1539
66.18,194.5046
66.2,198.8323
66.22,193.6444
66.24,217.3885
66.26,196.7876
66.28,218.3256
66.3,208.1415
66.32,204.8207
66.34,203.6873
66.36,203.938
66.38,180.7233
66.4,197.2112
66.42,208.4516
66.44,199.511
66.46,185.9481
66.48,199.476
66.5,217.0411
66.52,212.4689
66.54,199.38
66.56,209.5145
66.58,196.3349
66.6,182.9613
66.62,190.7553
66.64,215.6289
66.66,197.2601
66.68,197.5662
66.7,197.0016
66.72,219.0414
66.74,216.2596
66.76,222.1878
66.78,198.4095
66.8,202.9562
66.82,184.8336
66.84,214.7693
66.86,188.3222
66.88,202.1678
66.9,189.027
66.92,194.1113
66.94,191.6274
66.96,193.9212
66.98,194.6088
67.0,194.5173
67.02,208.3333
67.04,188.9514
67.06,202.2054
67.08,212.1796
67.1,194.868
67.12,192.8208
67.14,197.6948
67.16,211.7973
67.18,201.9411
67.2,194.6879
67.22,204.8388
67.24,188.9771
67.26,206.8136
67.28,204.0861
67.3,196.9219
67.32,191.6141
67.34,191.1332
67.36,205.3482
67.38,212.2898
67.4,193.6269
67.42,204.5839
67.44,179.1297
67.46,194.1538
67.48,199.6894
67.5,190.9032
67.52,190.6349
67.54,193.3222
67.56,202.9219
67.58,198.1267
67.6,177.6177
67.62,178.793
67.64,193.9313
67.66,204.5769
67.68,172.525
67.7,195.0027
67.72,194.7375
67.74,213.8834
67.76,196.1498
67.78,203.8299
67.8,201.4126
67.82,178.6943
67.84,207.6821
67.86,202.154
67.88,205.0827
67.9,239.2624
67.92,179.1589
67.94,217.247
67.96,197.1255
67.98,202.8733
68.0,199.5449
68.02,195.7576
68.04,194.3017
68.06,203.2951
68.08,184.8283
68.1,207.5058
68.12,195.8381
68.14,188.6993
68.16,195.4999
68.18,212.5715
68.2,194.6466
68.22,203.5845
68.24,192.6904
68.26,207.5792
68.28,206.8551
68.3,218.4861
68.32,198.2444
68.34,206.6865
68.36,200.9807
68.38,212.9587
68.4,192.8117
68.42,207.4501
68.44,198.053
68.46,199.3581
68.48,200.9175
68.5,202.5224
68.52,198.8377
68.54,202.1471
68.56,215.7812
68.58,209.8545
68.6,208.6915
68.62,195.4446
68.64,191.1076
68.66,209.553
68.68,208.7605
68.7,214.7267
68.72,193.9602
68.74,197.7045
68.76,183.6052
68.78,196.0753
68.8,209.9657
68.82,195.335
68.84,206.4048
68.86,198.095
68.88,203.2406
68.9,188.5231
68.92,200.8521
68.94,170.0886
68.96,198.131
68.98,183.6953
69.0,212.0599
69.02,207.7741
69.04,204.6667
69.06,215.2101
69.08,190.5108
69.1,217.4736
69.12,209.3219
69.14,197.6344
69.16,211.3562
69.18,188.9371
69.2,191.7549
69.22,193.9141
69.24,194.7102
69.26,189.4344
69.28,212.2308
69.3,197.4115
69.32,203.525
69.34,194.2965
69.36,181.794
69.38,202.7006
69.4,180.8775
69.42,199.3137
69.44,186.3168
69.46,219.8728
69.48,209.1136
69.5,201.0575
69.52,212.6371
69.54,191.5368
69.56,205.4348
69.58,201.9981
69.6,202.6402
69.62,212.7235
69.64,207.3249
69.66,202.8872
69.68,183.4511
69.7,190.3995
69.72,198.7729
69.74,200.9337
69.76,188.698
69.78,224.1168
69.8,215.1639
69.82,206.0212
69.84,200.7204
69.86,197.8779
69.88,190.4808
69.9,200.7748
69.92,202.5775
69.94,187.5824
69.96,203.3418
69.98,198.4474
70.0,180.9219
